#"Wavelength, microns"	"OAP 2"
0.65628	94.0
0.7	94.0
0.8	94.0
0.8498	94.0
0.8542	94.0
0.8662	94.0
1.2	94.0
1.3	94.0
1.4	94.0
1.5	94.0
1.6	94.0
1.7	94.0
1.8	94.0
1.9	94.0
2	94.0
2.1	94.0
2.2	94.0
2.3	94.0
2.4	94.0
2.5	94.0
