#"Wavelength, microns"	"DM"
0.65628	93.0
0.7	93.0
0.8	93.0
0.8498	93.0
0.8542	93.0
0.8662	93.0
1.2	93.0
1.3	93.0
1.4	93.0
1.5	93.0
1.6	93.0
1.7	93.0
1.8	93.0
1.9	93.0
2	93.0
2.1	93.0
2.2	93.0
2.3	93.0
2.4	93.0
2.5	93.0
