# My version of 1.-TT_Dichro_Refl, wavelengths in nm to
# match the palomar AO dichroic file used in the Keck NGAO calculations
# refl_palao_ird2.dat
      0.0007951     -3.7059999
      0.0008238     -4.5879998
      0.0008461     -4.0000000
      0.0008653     -4.0000000
      0.0008844     -3.7059999
      0.0009067     -6.9410000
      0.0009099    -16.9410000
      0.0009258    -93.4120026
      0.0009385    -54.8820000
      0.0009545    -94.2939987
      0.0009672    -95.4710007
      0.0009800    -94.2939987
      0.0009927    -89.8820038
      0.0010055    -94.5879974
      0.0010182    -96.3529968
      0.0010310    -95.1760025
      0.0010405    -94.0000000
      0.0010533    -95.4710007
      0.0010596    -96.0589981
      0.0010724    -95.4710007
      0.0010819    -95.1760025
      0.0011011    -94.0000000
      0.0011106    -94.8820038
      0.0011234    -96.3529968
      0.0011329    -95.7649994
      0.0011425    -93.1179962
      0.0011520    -90.7649994
      0.0011616    -93.4120026
      0.0011744    -95.1760025
      0.0011903    -95.4710007
      0.0012126    -96.6470032
      0.0012285    -94.5879974
      0.0012381    -92.5289993
      0.0012508    -94.5879974
      0.0012700    -96.3529968
      0.0012795    -96.3529968
      0.0012923    -94.8820038
      0.0013082    -92.8239975
      0.0013273    -95.1760025
      0.0013464    -96.0589981
      0.0013656    -96.9410019
      0.0013783    -96.9410019
      0.0014006    -98.1179962
      0.0014229    -97.5289993
      0.0014420    -98.7060013
      0.0014739    -99.0000000
      0.0014994    -98.4120026
      0.0015090    -96.9410019
      0.0015153    -95.7649994
      0.0015249    -97.2350006
      0.0015344    -98.4120026
      0.0015472    -98.4120026
      0.0015695    -97.8239975
      0.0015854    -96.6470032
      0.0016077    -97.5289993
      0.0016332    -98.1179962
      0.0016555    -96.9410019
      0.0016651    -94.8820038
      0.0016747    -91.9410019
      0.0016874    -94.8820038
      0.0016970    -96.9410019
      0.0017225    -98.1179962
      0.0017480    -97.5289993
      0.0017607    -95.4710007
      0.0017703    -95.4710007
      0.0017798    -95.1760025
      0.0017894    -96.6470032
      0.0018021    -97.2350006
      0.0018117    -96.0589981
      0.0018244    -93.4120026
      0.0018340    -95.7649994
      0.0018436    -97.8239975
      0.0018563    -98.4120026
      0.0019009    -98.7060013
      0.0019328    -98.1179962
      0.0019583    -97.2350006
      0.0019710    -95.7649994
      0.0019838    -94.2939987
      0.0020029    -96.3529968
      0.0020188    -97.2350006
      0.0020379    -96.3529968
      0.0020475    -95.1760025
      0.0020539    -94.5879974
      0.0020666    -96.3529968
      0.0020762    -97.8239975
      0.0021017    -98.4120026
      0.0021272    -98.1179962
      0.0021463    -97.2350006
      0.0021622    -96.6470032
      0.0021781    -97.5289993
      0.0022036    -98.4120026
      0.0022387    -98.1179962
      0.0022737    -96.9410019
      0.0022929    -94.5879974
      0.0023215    -93.4120026
      0.0023534    -94.0000000
      0.0023948    -94.5879974
      0.0024363    -95.7649994
      0.0024745    -96.0589981
      0.0024968    -96.0589981
